Experiment	Frequency Sweep	
Date	30.11.2021 23:11:06	
User		
f_res (Hz)	30902.3122	
Q	2800	
Phase (deg)	66.19	
Amp/Exc (nm/mV)	0.351703	
Number of points	256	
Fit length	11	
Bias>Bias (V)	200E-3	
Bias>Calibration (V/V)	1E+0	
Bias>Offset (V)	0E+0	
Current>Current (A)	-10.845E-15	
Current>Calibration (A/V)	999.99900E-12	
Current>Offset (A)	-389.951E-15	
Current>Gain	n/a	
NanonisMain>SW Version	Generic 4	
NanonisMain>UI Release	8181	
NanonisMain>RT Release	7685	
NanonisMain>RT Frequency (Hz)	10E+3	
NanonisMain>Signals Oversampling	10	
NanonisMain>Animations Period (s)	20E-3	
NanonisMain>Indicators Period (s)	300E-3	
NanonisMain>Measurements Period (s)	29.4694E-3	
Oscillation Control>differential input	TRUE	
Oscillation Control>input 1/10	FALSE	
Oscillation Control>Input Calibration (m/V)	23E-9	
Oscillation Control>Input Range (m)	3.70665E-9	
Oscillation Control>Center Frequency (Hz)	30.9023E+3	
Oscillation Control>Range (Hz)	152.588E+0	
Oscillation Control>Reference Phase (deg)	-66.19E+0	
Oscillation Control>Cut off frq (Hz)	389	
Oscillation Control>Harmonic	1	
Oscillation Control>Phase P gain (Hz/rad)	1.0472E+0	
Oscillation Control>Phase I gain (Hz/rad/s)	35.535E+0	
Oscillation Control>Phase controller on	FALSE	
Oscillation Control>FrequencyShift (Hz)	0E+0	
Oscillation Control>Amplitude Setpoint (m)	40E-12	
Oscillation Control>Amplitude P gain (V/nm)	30.4493E+6	
Oscillation Control>Amplitude I gain (V/nm/s)	1.03325E+9	
Oscillation Control>Amplitude controller on	FALSE	
Oscillation Control>Excitation (V)	5.64767E-3	
Oscillation Control>output divider	0.01	
Oscillation Control>output off	FALSE	
Oscillation Control>output add	FALSE	
Oscillation Control>PLL-Setup Q-Factor	2.8E+3	
Oscillation Control>PLL-Setup Demod. Bandwidth Amp (Hz)	60E+0	
Oscillation Control>PLL-Setup Demod. Bandwidth Pha (Hz)	60E+0	
Oscillation Control>PLL-Setup amplitude/excitation (m/V)	351.703E-9	
Piezo Calibration>Active Calib.	4K	
Piezo Calibration>Calib. X (m/V)	3.8887E-9	
Piezo Calibration>Calib. Y (m/V)	3.6202E-9	
Piezo Calibration>Calib. Z (m/V)	-871E-12	
Piezo Calibration>HV Gain X	10	
Piezo Calibration>HV Gain Y	10	
Piezo Calibration>HV Gain Z	4	
Piezo Calibration>Tilt X (deg)	-1.82	
Piezo Calibration>Tilt Y (deg)	-0.81	
Piezo Calibration>Curvature radius X (m)	Inf	
Piezo Calibration>Curvature radius Y (m)	Inf	
Piezo Calibration>2nd order corr X (V/m^2)	0E+0	
Piezo Calibration>2nd order corr Y (V/m^2)	0E+0	
Piezo Calibration>Drift X (m/s)	0E+0	
Piezo Calibration>Drift Y (m/s)	0E+0	
Piezo Calibration>Drift Z (m/s)	0E+0	
Piezo Calibration>Drift correction status (on/off)	FALSE	
Scan>Scanfield	49.0732E-9;-194.095E-9;60E-9;60E-9;0E+0	
Scan>series name	NPG_CO_%N	
Scan>channels	Current (A);Applied Voltage measured (V);Bias (V);Z (m);Phase (deg);Amplitude (m);Frequency Shift (Hz);Excitation (V);LIX 1 omega (A);LIY 1 omega (A)	
Scan>pixels/line	208	
Scan>lines	208	
Scan>speed forw. (m/s)	23.4522E-9	
Scan>speed backw. (m/s)	42.2139E-9	
Z-Controller>Z (m)	-7.52279E-9	
Z-Controller>Controller name	log Current (amplitude safetip)	
Z-Controller>Controller status	OFF	
Z-Controller>Setpoint	2E-12	
Z-Controller>Setpoint unit	A	
Z-Controller>P gain	70E-12	
Z-Controller>I gain	35E-9	
Z-Controller>Time const (s)	2E-3	
Z-Controller>TipLift (m)	0E+0	
Z-Controller>Switch off delay (s)	5E-3	

[DATA]
Frequency Shift (Hz)	Center Frequency (Hz)	Amplitude (m)	Phase (deg)
-19.1000E+0	30.9027E+3	598.839E-12	84.2190E+0
-18.9502E+0	30.9027E+3	578.023E-12	72.9334E+0
-18.8004E+0	30.9027E+3	551.177E-12	74.3490E+0
-18.6506E+0	30.9027E+3	556.615E-12	74.3798E+0
-18.5008E+0	30.9027E+3	565.502E-12	74.1924E+0
-18.3510E+0	30.9027E+3	567.594E-12	73.7625E+0
-18.2012E+0	30.9027E+3	575.000E-12	73.7685E+0
-18.0514E+0	30.9027E+3	573.912E-12	73.7727E+0
-17.9016E+0	30.9027E+3	578.159E-12	73.5113E+0
-17.7518E+0	30.9027E+3	578.954E-12	73.5186E+0
-17.6020E+0	30.9027E+3	592.974E-12	73.2267E+0
-17.4522E+0	30.9027E+3	595.566E-12	72.8649E+0
-17.3024E+0	30.9027E+3	600.224E-12	72.8579E+0
-17.1526E+0	30.9027E+3	607.381E-12	72.7832E+0
-17.0028E+0	30.9027E+3	614.104E-12	72.4355E+0
-16.8530E+0	30.9027E+3	614.916E-12	72.3166E+0
-16.7031E+0	30.9027E+3	623.701E-12	72.3168E+0
-16.5533E+0	30.9027E+3	623.199E-12	72.3592E+0
-16.4035E+0	30.9027E+3	629.978E-12	71.7628E+0
-16.2537E+0	30.9027E+3	634.385E-12	72.1560E+0
-16.1039E+0	30.9027E+3	640.406E-12	71.8276E+0
-15.9541E+0	30.9027E+3	648.960E-12	71.3934E+0
-15.8043E+0	30.9027E+3	652.658E-12	71.2395E+0
-15.6545E+0	30.9027E+3	664.301E-12	71.1135E+0
-15.5047E+0	30.9027E+3	663.623E-12	70.9984E+0
-15.3549E+0	30.9027E+3	672.660E-12	70.7032E+0
-15.2051E+0	30.9027E+3	674.621E-12	70.7441E+0
-15.0553E+0	30.9027E+3	674.825E-12	70.7472E+0
-14.9055E+0	30.9027E+3	688.725E-12	70.2859E+0
-14.7557E+0	30.9027E+3	687.126E-12	70.2814E+0
-14.6059E+0	30.9027E+3	694.041E-12	69.9430E+0
-14.4561E+0	30.9027E+3	701.689E-12	69.4017E+0
-14.3063E+0	30.9027E+3	722.849E-12	69.5038E+0
-14.1565E+0	30.9027E+3	726.302E-12	68.8576E+0
-14.0067E+0	30.9027E+3	728.156E-12	69.1541E+0
-13.8569E+0	30.9027E+3	729.228E-12	69.1336E+0
-13.7071E+0	30.9027E+3	734.290E-12	68.4015E+0
-13.5573E+0	30.9027E+3	751.389E-12	68.3870E+0
-13.4075E+0	30.9027E+3	757.821E-12	68.2343E+0
-13.2577E+0	30.9027E+3	772.080E-12	67.8931E+0
-13.1079E+0	30.9027E+3	772.732E-12	67.6267E+0
-12.9581E+0	30.9027E+3	781.061E-12	67.2263E+0
-12.8082E+0	30.9027E+3	793.974E-12	66.7267E+0
-12.6584E+0	30.9027E+3	798.010E-12	67.0301E+0
-12.5086E+0	30.9027E+3	814.405E-12	66.4429E+0
-12.3588E+0	30.9027E+3	813.462E-12	66.4440E+0
-12.2090E+0	30.9027E+3	823.673E-12	66.1450E+0
-12.0592E+0	30.9027E+3	837.467E-12	65.1856E+0
-11.9094E+0	30.9027E+3	852.380E-12	65.1969E+0
-11.7596E+0	30.9027E+3	854.393E-12	64.9079E+0
-11.6098E+0	30.9027E+3	863.803E-12	64.5672E+0
-11.4600E+0	30.9027E+3	876.937E-12	63.9901E+0
-11.3102E+0	30.9027E+3	893.134E-12	64.0007E+0
-11.1604E+0	30.9027E+3	890.262E-12	64.0673E+0
-11.0106E+0	30.9027E+3	890.625E-12	63.8922E+0
-10.8608E+0	30.9027E+3	898.395E-12	63.4657E+0
-10.7110E+0	30.9027E+3	924.603E-12	63.0436E+0
-10.5612E+0	30.9027E+3	933.642E-12	62.2710E+0
-10.4114E+0	30.9027E+3	955.800E-12	61.8409E+0
-10.2616E+0	30.9027E+3	956.922E-12	61.7546E+0
-10.1118E+0	30.9027E+3	976.792E-12	61.2080E+0
-9.96197E+0	30.9027E+3	976.964E-12	61.1927E+0
-9.81216E+0	30.9027E+3	993.582E-12	60.3061E+0
-9.66236E+0	30.9027E+3	1.01627E-9	59.8011E+0
-9.51256E+0	30.9027E+3	1.01609E-9	59.6460E+0
-9.36275E+0	30.9027E+3	1.02834E-9	59.3226E+0
-9.21295E+0	30.9027E+3	1.02950E-9	59.3039E+0
-9.06314E+0	30.9027E+3	1.05929E-9	57.2815E+0
-8.91334E+0	30.9027E+3	1.08096E-9	57.6400E+0
-8.76354E+0	30.9027E+3	1.08210E-9	57.6032E+0
-8.61373E+0	30.9027E+3	1.08488E-9	57.4068E+0
-8.46393E+0	30.9027E+3	1.11582E-9	55.2574E+0
-8.31412E+0	30.9027E+3	1.14545E-9	55.2761E+0
-8.16432E+0	30.9027E+3	1.15082E-9	54.9587E+0
-8.01451E+0	30.9027E+3	1.17341E-9	54.5064E+0
-7.86471E+0	30.9027E+3	1.17288E-9	54.4373E+0
-7.71491E+0	30.9027E+3	1.19158E-9	53.2897E+0
-7.56510E+0	30.9027E+3	1.22518E-9	52.6626E+0
-7.41530E+0	30.9027E+3	1.22397E-9	52.7110E+0
-7.26549E+0	30.9027E+3	1.22685E-9	52.0486E+0
-7.11569E+0	30.9027E+3	1.26346E-9	50.5320E+0
-6.96589E+0	30.9027E+3	1.28285E-9	49.9579E+0
-6.81608E+0	30.9027E+3	1.29559E-9	49.5214E+0
-6.66628E+0	30.9027E+3	1.31276E-9	48.7438E+0
-6.51647E+0	30.9027E+3	1.32961E-9	48.4070E+0
-6.36667E+0	30.9027E+3	1.34626E-9	47.8077E+0
-6.21687E+0	30.9027E+3	1.35690E-9	46.7846E+0
-6.06706E+0	30.9027E+3	1.40605E-9	45.5803E+0
-5.91726E+0	30.9027E+3	1.40844E-9	45.3314E+0
-5.76745E+0	30.9027E+3	1.42950E-9	43.7644E+0
-5.61765E+0	30.9027E+3	1.45617E-9	42.8358E+0
-5.46784E+0	30.9027E+3	1.46781E-9	42.7430E+0
-5.31804E+0	30.9027E+3	1.48099E-9	41.8182E+0
-5.16824E+0	30.9027E+3	1.51078E-9	40.0784E+0
-5.01843E+0	30.9027E+3	1.53785E-9	39.2299E+0
-4.86863E+0	30.9027E+3	1.55818E-9	38.2647E+0
-4.71882E+0	30.9027E+3	1.57379E-9	37.5650E+0
-4.56902E+0	30.9027E+3	1.59528E-9	36.2757E+0
-4.41922E+0	30.9027E+3	1.64297E-9	35.0077E+0
-4.26941E+0	30.9027E+3	1.63996E-9	34.9514E+0
-4.11961E+0	30.9027E+3	1.63997E-9	34.9706E+0
-3.96980E+0	30.9027E+3	1.64101E-9	34.7965E+0
-3.82000E+0	30.9027E+3	1.65239E-9	33.8506E+0
-3.67020E+0	30.9027E+3	1.66371E-9	33.1022E+0
-3.52039E+0	30.9027E+3	1.67763E-9	32.6333E+0
-3.37059E+0	30.9027E+3	1.76580E-9	27.6594E+0
-3.22078E+0	30.9027E+3	1.76917E-9	27.7105E+0
-3.07098E+0	30.9027E+3	1.79686E-9	25.0889E+0
-2.92118E+0	30.9027E+3	1.81821E-9	23.0651E+0
-2.77137E+0	30.9027E+3	1.83636E-9	22.3583E+0
-2.62157E+0	30.9027E+3	1.85434E-9	20.2449E+0
-2.47177E+0	30.9027E+3	1.87833E-9	18.3981E+0
-2.32196E+0	30.9027E+3	1.89252E-9	17.3270E+0
-2.17216E+0	30.9027E+3	1.91821E-9	15.0518E+0
-2.02235E+0	30.9027E+3	1.92898E-9	13.8179E+0
-1.87255E+0	30.9027E+3	1.93672E-9	12.2943E+0
-1.72275E+0	30.9027E+3	1.94648E-9	10.8148E+0
-1.57294E+0	30.9027E+3	1.95428E-9	9.21330E+0
-1.42314E+0	30.9027E+3	1.96497E-9	7.66125E+0
-1.27333E+0	30.9027E+3	1.97346E-9	5.81600E+0
-1.12353E+0	30.9027E+3	1.97777E-9	4.81830E+0
-973.726E-3	30.9027E+3	1.98346E-9	2.21051E+0
-823.923E-3	30.9027E+3	1.98500E-9	2.21978E+0
-674.119E-3	30.9027E+3	1.98292E-9	2.29641E+0
-524.315E-3	30.9027E+3	1.98456E-9	1.29560E+0
-374.511E-3	30.9027E+3	1.98630E-9	-360.043E-3
-224.707E-3	30.9027E+3	1.98416E-9	-1.76067E+0
-74.9029E-3	30.9027E+3	1.98149E-9	-2.47206E+0
74.9011E-3	30.9027E+3	1.97908E-9	-5.38056E+0
224.705E-3	30.9027E+3	1.94592E-9	-10.6081E+0
374.509E-3	30.9027E+3	1.93911E-9	-12.0708E+0
524.313E-3	30.9027E+3	1.92428E-9	-13.6660E+0
674.117E-3	30.9027E+3	1.92353E-9	-13.6960E+0
823.921E-3	30.9027E+3	1.92403E-9	-14.1175E+0
973.725E-3	30.9027E+3	1.90978E-9	-16.8787E+0
1.12353E+0	30.9027E+3	1.89127E-9	-18.0086E+0
1.27333E+0	30.9027E+3	1.84816E-9	-21.0552E+0
1.42314E+0	30.9027E+3	1.84578E-9	-21.1962E+0
1.57294E+0	30.9027E+3	1.83652E-9	-22.5915E+0
1.72274E+0	30.9027E+3	1.81166E-9	-24.7206E+0
1.87255E+0	30.9027E+3	1.78888E-9	-26.0137E+0
2.02235E+0	30.9027E+3	1.77460E-9	-26.4930E+0
2.17216E+0	30.9027E+3	1.76908E-9	-26.7970E+0
2.32196E+0	30.9027E+3	1.74747E-9	-28.7000E+0
2.47176E+0	30.9027E+3	1.72618E-9	-30.1178E+0
2.62157E+0	30.9027E+3	1.68862E-9	-32.3611E+0
2.77137E+0	30.9027E+3	1.64790E-9	-33.6109E+0
2.92118E+0	30.9027E+3	1.64112E-9	-33.5173E+0
3.07098E+0	30.9027E+3	1.61832E-9	-35.6659E+0
3.22078E+0	30.9027E+3	1.59938E-9	-36.4645E+0
3.37059E+0	30.9027E+3	1.55635E-9	-37.9204E+0
3.52039E+0	30.9027E+3	1.55464E-9	-37.7985E+0
3.67019E+0	30.9027E+3	1.53001E-9	-39.6459E+0
3.82000E+0	30.9027E+3	1.51419E-9	-39.8238E+0
3.96980E+0	30.9027E+3	1.50827E-9	-40.2980E+0
4.11961E+0	30.9027E+3	1.49518E-9	-40.7399E+0
4.26941E+0	30.9027E+3	1.48491E-9	-41.4718E+0
4.41921E+0	30.9027E+3	1.46645E-9	-42.3881E+0
4.56902E+0	30.9027E+3	1.44006E-9	-43.9928E+0
4.71882E+0	30.9027E+3	1.40072E-9	-45.3417E+0
4.86863E+0	30.9027E+3	1.35481E-9	-46.7333E+0
5.01843E+0	30.9027E+3	1.34924E-9	-46.4273E+0
5.16824E+0	30.9027E+3	1.34934E-9	-46.8488E+0
5.31804E+0	30.9027E+3	1.33474E-9	-47.3095E+0
5.46784E+0	30.9027E+3	1.31733E-9	-48.5994E+0
5.61765E+0	30.9027E+3	1.26607E-9	-50.1693E+0
5.76745E+0	30.9027E+3	1.25846E-9	-49.9692E+0
5.91726E+0	30.9027E+3	1.24674E-9	-51.1561E+0
6.06706E+0	30.9027E+3	1.20874E-9	-51.7861E+0
6.21686E+0	30.9027E+3	1.20874E-9	-51.7416E+0
6.36667E+0	30.9027E+3	1.20585E-9	-52.7027E+0
6.51647E+0	30.9027E+3	1.15994E-9	-53.4757E+0
6.66628E+0	30.9027E+3	1.15843E-9	-53.7877E+0
6.81608E+0	30.9027E+3	1.13074E-9	-54.4455E+0
6.96588E+0	30.9027E+3	1.13049E-9	-54.5550E+0
7.11569E+0	30.9027E+3	1.13127E-9	-54.7331E+0
7.26549E+0	30.9027E+3	1.10816E-9	-55.8783E+0
7.41530E+0	30.9027E+3	1.08537E-9	-56.3708E+0
7.56510E+0	30.9027E+3	1.07214E-9	-56.5095E+0
7.71491E+0	30.9027E+3	1.07305E-9	-56.5460E+0
7.86471E+0	30.9027E+3	1.06107E-9	-57.3392E+0
8.01451E+0	30.9027E+3	1.04454E-9	-58.3054E+0
8.16432E+0	30.9027E+3	1.01680E-9	-58.6169E+0
8.31412E+0	30.9027E+3	1.01543E-9	-58.6536E+0
8.46393E+0	30.9027E+3	1.00661E-9	-58.7858E+0
8.61373E+0	30.9027E+3	1.00204E-9	-59.3061E+0
8.76353E+0	30.9027E+3	994.039E-12	-59.2355E+0
8.91334E+0	30.9027E+3	983.021E-12	-60.1071E+0
9.06314E+0	30.9027E+3	969.334E-12	-60.0566E+0
9.21295E+0	30.9027E+3	968.886E-12	-60.3335E+0
9.36275E+0	30.9027E+3	949.378E-12	-60.7173E+0
9.51255E+0	30.9027E+3	937.343E-12	-61.3072E+0
9.66236E+0	30.9027E+3	936.359E-12	-60.9771E+0
9.81216E+0	30.9027E+3	922.141E-12	-62.2601E+0
9.96197E+0	30.9027E+3	904.379E-12	-62.2718E+0
10.1118E+0	30.9027E+3	886.709E-12	-63.5675E+0
10.2616E+0	30.9027E+3	861.595E-12	-63.6242E+0
10.4114E+0	30.9027E+3	860.022E-12	-64.2008E+0
10.5612E+0	30.9027E+3	832.555E-12	-64.5033E+0
10.7110E+0	30.9027E+3	837.093E-12	-64.4995E+0
10.8608E+0	30.9027E+3	827.942E-12	-64.6725E+0
11.0106E+0	30.9027E+3	820.673E-12	-64.7734E+0
11.1604E+0	30.9027E+3	819.927E-12	-64.8393E+0
11.3102E+0	30.9027E+3	820.484E-12	-64.7909E+0
11.4600E+0	30.9027E+3	814.214E-12	-65.3317E+0
11.6098E+0	30.9027E+3	810.289E-12	-64.9992E+0
11.7596E+0	30.9027E+3	812.690E-12	-65.2180E+0
11.9094E+0	30.9027E+3	809.162E-12	-65.4502E+0
12.0592E+0	30.9027E+3	794.246E-12	-65.8677E+0
12.2090E+0	30.9027E+3	794.863E-12	-65.5429E+0
12.3588E+0	30.9027E+3	785.086E-12	-66.3804E+0
12.5086E+0	30.9027E+3	767.143E-12	-66.5757E+0
12.6584E+0	30.9027E+3	771.865E-12	-66.3660E+0
12.8082E+0	30.9027E+3	770.824E-12	-66.3922E+0
12.9580E+0	30.9027E+3	757.547E-12	-67.4391E+0
13.1079E+0	30.9027E+3	737.268E-12	-67.8735E+0
13.2577E+0	30.9027E+3	717.898E-12	-68.1739E+0
13.4075E+0	30.9027E+3	721.194E-12	-67.9933E+0
13.5573E+0	30.9027E+3	709.334E-12	-68.4498E+0
13.7071E+0	30.9027E+3	705.961E-12	-68.4578E+0
13.8569E+0	30.9027E+3	691.674E-12	-68.9057E+0
14.0067E+0	30.9027E+3	684.165E-12	-69.1494E+0
14.1565E+0	30.9027E+3	671.879E-12	-69.3776E+0
14.3063E+0	30.9027E+3	667.519E-12	-69.7313E+0
14.4561E+0	30.9027E+3	662.258E-12	-70.0707E+0
14.6059E+0	30.9027E+3	654.737E-12	-70.1906E+0
14.7557E+0	30.9027E+3	644.166E-12	-70.1505E+0
14.9055E+0	30.9027E+3	645.322E-12	-70.3235E+0
15.0553E+0	30.9027E+3	629.064E-12	-71.1393E+0
15.2051E+0	30.9027E+3	628.092E-12	-71.0025E+0
15.3549E+0	30.9027E+3	618.751E-12	-71.1725E+0
15.5047E+0	30.9027E+3	620.239E-12	-71.0139E+0
15.6545E+0	30.9027E+3	611.285E-12	-71.1440E+0
15.8043E+0	30.9027E+3	606.759E-12	-71.5598E+0
15.9541E+0	30.9027E+3	597.568E-12	-71.9895E+0
16.1039E+0	30.9027E+3	600.652E-12	-71.7464E+0
16.2537E+0	30.9027E+3	592.372E-12	-71.8454E+0
16.4035E+0	30.9027E+3	593.744E-12	-72.0702E+0
16.5533E+0	30.9027E+3	583.189E-12	-72.3564E+0
16.7031E+0	30.9027E+3	580.474E-12	-72.1928E+0
16.8530E+0	30.9027E+3	574.298E-12	-72.3591E+0
17.0028E+0	30.9027E+3	566.451E-12	-72.7800E+0
17.1526E+0	30.9027E+3	563.044E-12	-72.7059E+0
17.3024E+0	30.9027E+3	561.324E-12	-72.8287E+0
17.4522E+0	30.9027E+3	562.291E-12	-72.7288E+0
17.6020E+0	30.9027E+3	550.450E-12	-72.8536E+0
17.7518E+0	30.9027E+3	550.002E-12	-72.9704E+0
17.9016E+0	30.9027E+3	543.506E-12	-73.2736E+0
18.0514E+0	30.9027E+3	543.631E-12	-73.3310E+0
18.2012E+0	30.9027E+3	532.633E-12	-73.6247E+0
18.3510E+0	30.9027E+3	529.328E-12	-73.6175E+0
18.5008E+0	30.9027E+3	530.426E-12	-73.6875E+0
18.6506E+0	30.9027E+3	529.861E-12	-73.8636E+0
18.8004E+0	30.9027E+3	520.352E-12	-74.0054E+0
18.9502E+0	30.9027E+3	521.183E-12	-74.3209E+0
19.1000E+0	30.9027E+3	510.158E-12	-74.1315E+0
